N MERIS Camera Average Relative Spectral Response
b1
  405.1000 0.0000000  24685.26
  405.2000 0.0000178  24679.17
  405.3000 0.0000672  24673.08
  405.4000 0.0001905  24667.00
  405.5000 0.0003369  24660.91
  405.6000 0.0007269  24654.83
  405.7000 0.0012343  24648.76
  405.8000 0.0020529  24642.68
  405.9000 0.0033432  24636.61
  406.0000 0.0053327  24630.54
  406.1000 0.0083292  24624.48
  406.2000 0.0127399  24618.41
  406.3000 0.0190811  24612.36
  406.4000 0.0279821  24606.30
  406.5000 0.0401861  24600.25
  406.6000 0.0565115  24594.20
  406.7000 0.0778204  24588.15
  406.8000 0.1049430  24582.10
  406.9000 0.1385840  24576.06
  407.0000 0.1792560  24570.02
  407.1000 0.2271160  24563.99
  407.2000 0.2819170  24557.96
  407.3000 0.3429160  24551.93
  407.4000 0.4088460  24545.90
  407.5000 0.4780130  24539.88
  407.6000 0.5483020  24533.86
  407.7000 0.6174270  24527.84
  407.8000 0.6830900  24521.82
  407.9000 0.7432220  24515.81
  408.0000 0.7962430  24509.80
  408.1000 0.8411400  24503.80
  408.2000 0.8776250  24497.80
  408.3000 0.9060850  24491.80
  408.4000 0.9274840  24485.80
  408.5000 0.9431890  24479.80
  408.6000 0.9547010  24473.81
  408.7000 0.9634460  24467.82
  408.8000 0.9705610  24461.84
  408.9000 0.9767790  24455.86
  409.0000 0.9824040  24449.88
  409.1000 0.9873680  24443.90
  409.2000 0.9913810  24437.93
  409.3000 0.9940980  24431.96
  409.4000 0.9952900  24425.99
  409.5000 0.9949640  24420.02
  409.6000 0.9934030  24414.06
  409.7000 0.9911330  24408.10
  409.8000 0.9888130  24402.15
  409.9000 0.9870830  24396.19
  410.0000 0.9864200  24390.24
  410.1000 0.9870220  24384.30
  410.2000 0.9887650  24378.35
  410.3000 0.9912360  24372.41
  410.4000 0.9938370  24366.47
  410.5000 0.9959410  24360.54
  410.6000 0.9970440  24354.60
  410.7000 0.9968920  24348.67
  410.8000 0.9955450  24342.75
  410.9000 0.9933640  24336.82
  411.0000 0.9909140  24330.90
  411.1000 0.9888290  24324.98
  411.2000 0.9876490  24319.07
  411.3000 0.9876890  24313.15
  411.4000 0.9889550  24307.24
  411.5000 0.9911500  24301.34
  411.6000 0.9937430  24295.43
  411.7000 0.9961070  24289.53
  411.8000 0.9976690  24283.63
  411.9000 0.9980620  24277.74
  412.0000 0.9972100  24271.84
  412.1000 0.9953460  24265.95
  412.2000 0.9929590  24260.07
  412.3000 0.9906670  24254.18
  412.4000 0.9890610  24248.30
  412.5000 0.9885610  24242.42
  412.6000 0.9893120  24236.55
  412.7000 0.9911420  24230.68
  412.8000 0.9936120  24224.81
  412.9000 0.9961230  24218.94
  413.0000 0.9980690  24213.08
  413.1000 0.9989830  24207.21
  413.2000 0.9986570  24201.36
  413.3000 0.9971970  24195.50
  413.4000 0.9949870  24189.65
  413.5000 0.9926010  24183.80
  413.6000 0.9906550  24177.95
  413.7000 0.9896550  24172.11
  413.8000 0.9898670  24166.26
  413.9000 0.9912570  24160.43
  414.0000 0.9934950  24154.59
  414.1000 0.9960390  24148.76
  414.2000 0.9982730  24142.93
  414.3000 0.9996580  24137.10
  414.4000 0.9998690  24131.27
  414.5000 0.9988750  24125.45
  414.6000 0.9969450  24119.63
  414.7000 0.9945800  24113.82
  414.8000 0.9923910  24108.00
  414.9000 0.9909410  24102.19
  415.0000 0.9906030  24096.39
  415.1000 0.9914710  24090.58
  415.2000 0.9933270  24084.78
  415.3000 0.9956960  24078.98
  415.4000 0.9979530  24073.18
  415.5000 0.9994730  24067.39
  415.6000 0.9997620  24061.60
  415.7000 0.9985620  24055.81
  415.8000 0.9958690  24050.02
  415.9000 0.9918960  24044.24
  416.0000 0.9869370  24038.46
  416.1000 0.9812240  24032.68
  416.2000 0.9747530  24026.91
  416.3000 0.9671640  24021.14
  416.4000 0.9576930  24015.37
  416.5000 0.9451950  24009.60
  416.6000 0.9282900  24003.84
  416.7000 0.9055430  23998.08
  416.8000 0.8756980  23992.32
  416.9000 0.8379090  23986.57
  417.0000 0.7918740  23980.82
  417.1000 0.7379860  23975.07
  417.2000 0.6772880  23969.32
  417.3000 0.6114090  23963.58
  417.4000 0.5424030  23957.83
  417.5000 0.4724830  23952.10
  417.6000 0.4039000  23946.36
  417.7000 0.3386620  23940.63
  417.8000 0.2784230  23934.90
  417.9000 0.2243800  23929.17
  418.0000 0.1772020  23923.44
  418.1000 0.1371240  23917.72
  418.2000 0.1039560  23912.00
  418.3000 0.0772056  23906.29
  418.4000 0.0561717  23900.57
  418.5000 0.0400290  23894.86
  418.6000 0.0279420  23889.15
  418.7000 0.0191045  23883.45
  418.8000 0.0127946  23877.75
  418.9000 0.0083941  23872.05
  419.0000 0.0053939  23866.35
  419.1000 0.0033954  23860.65
  419.2000 0.0020936  23854.96
  419.3000 0.0012647  23849.27
  419.4000 0.0007485  23843.59
  419.5000 0.0004339  23837.90
  419.6000 0.0002144  23832.22
  419.7000 0.0000267  23826.54
  419.8000 0.0000000  23820.87
b2
  435.0000 0.0000000  22988.51
  435.1000 0.0000324  22983.22
  435.2000 0.0001054  22977.94
  435.3000 0.0001892  22972.66
  435.4000 0.0003330  22967.39
  435.5000 0.0005748  22962.11
  435.6000 0.0009728  22956.84
  435.7000 0.0016139  22951.57
  435.8000 0.0026245  22946.31
  435.9000 0.0041831  22941.04
  436.0000 0.0065366  22935.78
  436.1000 0.0100131  22930.52
  436.2000 0.0150330  22925.26
  436.3000 0.0221206  22920.01
  436.4000 0.0318991  22914.76
  436.5000 0.0450932  22909.51
  436.6000 0.0624844  22904.26
  436.7000 0.0848600  22899.02
  436.8000 0.1129640  22893.77
  436.9000 0.1473950  22888.53
  437.0000 0.1885660  22883.30
  437.1000 0.2365450  22878.06
  437.2000 0.2909840  22872.83
  437.3000 0.3511060  22867.60
  437.4000 0.4156620  22862.37
  437.5000 0.4830580  22857.14
  437.6000 0.5513400  22851.92
  437.7000 0.6183660  22846.70
  437.8000 0.6820630  22841.48
  437.9000 0.7405640  22836.26
  438.0000 0.7924690  22831.05
  438.1000 0.8368700  22825.84
  438.2000 0.8734620  22820.63
  438.3000 0.9025630  22815.42
  438.4000 0.9249870  22810.22
  438.5000 0.9419050  22805.02
  438.6000 0.9546110  22799.82
  438.7000 0.9643420  22794.62
  438.8000 0.9721200  22789.43
  438.9000 0.9786390  22784.23
  439.0000 0.9842470  22779.04
  439.1000 0.9889880  22773.86
  439.2000 0.9927110  22768.67
  439.3000 0.9952150  22763.49
  439.4000 0.9963780  22758.31
  439.5000 0.9962500  22753.13
  439.6000 0.9950900  22747.95
  439.7000 0.9933390  22742.78
  439.8000 0.9915320  22737.61
  439.9000 0.9901860  22732.44
  440.0000 0.9896810  22727.27
  440.1000 0.9901730  22722.11
  440.2000 0.9915620  22716.95
  440.3000 0.9935200  22711.79
  440.4000 0.9955740  22706.63
  440.5000 0.9972280  22701.48
  440.6000 0.9980830  22696.32
  440.7000 0.9979410  22691.17
  440.8000 0.9968510  22686.03
  440.9000 0.9951010  22680.88
  441.0000 0.9931400  22675.74
  441.1000 0.9914700  22670.60
  441.2000 0.9905220  22665.46
  441.3000 0.9905430  22660.32
  441.4000 0.9915400  22655.19
  441.5000 0.9932770  22650.06
  441.6000 0.9953330  22644.93
  441.7000 0.9972070  22639.80
  441.8000 0.9984460  22634.68
  441.9000 0.9987530  22629.55
  442.0000 0.9980680  22624.43
  442.1000 0.9965730  22619.32
  442.2000 0.9946570  22614.20
  442.3000 0.9928100  22609.09
  442.4000 0.9915060  22603.98
  442.5000 0.9910810  22598.87
  442.6000 0.9916550  22593.76
  442.7000 0.9930940  22588.66
  442.8000 0.9950530  22583.56
  442.9000 0.9970540  22578.46
  443.0000 0.9986120  22573.36
  443.1000 0.9993520  22568.27
  443.2000 0.9991020  22563.18
  443.3000 0.9979380  22558.09
  443.4000 0.9961660  22553.00
  443.5000 0.9942390  22547.91
  443.6000 0.9926510  22542.83
  443.7000 0.9918100  22537.75
  443.8000 0.9919380  22532.67
  443.9000 0.9930130  22527.60
  444.0000 0.9947810  22522.52
  444.1000 0.9968110  22517.45
  444.2000 0.9986090  22512.38
  444.3000 0.9997400  22507.31
  444.4000 0.9999360  22502.25
  444.5000 0.9991590  22497.19
  444.6000 0.9976170  22492.13
  444.7000 0.9957070  22487.07
  444.8000 0.9939150  22482.01
  444.9000 0.9926970  22476.96
  445.0000 0.9923600  22471.91
  445.1000 0.9929890  22466.86
  445.2000 0.9944160  22461.81
  445.3000 0.9962610  22456.77
  445.4000 0.9980170  22451.73
  445.5000 0.9991650  22446.69
  445.6000 0.9992790  22441.65
  445.7000 0.9981110  22436.62
  445.8000 0.9956110  22431.58
  445.9000 0.9918900  22426.55
  446.0000 0.9871220  22421.52
  446.1000 0.9814180  22416.50
  446.2000 0.9747020  22411.47
  446.3000 0.9665970  22406.45
  446.4000 0.9563950  22401.43
  446.5000 0.9430720  22396.42
  446.6000 0.9254070  22391.40
  446.7000 0.9021520  22386.39
  446.8000 0.8722090  22381.38
  446.9000 0.8348410  22376.37
  447.0000 0.7897690  22371.36
  447.1000 0.7373230  22366.36
  447.2000 0.6784570  22361.36
  447.3000 0.6146240  22356.36
  447.4000 0.5476870  22351.36
  447.5000 0.4796470  22346.37
  447.6000 0.4125820  22341.38
  447.7000 0.3484260  22336.39
  447.8000 0.2887730  22331.40
  447.9000 0.2348240  22326.41
  448.0000 0.1872850  22321.43
  448.1000 0.1464750  22316.45
  448.2000 0.1123350  22311.47
  448.3000 0.0844720  22306.49
  448.4000 0.0622825  22301.52
  448.5000 0.0450153  22296.54
  448.6000 0.0318926  22291.57
  448.7000 0.0221523  22286.61
  448.8000 0.0150848  22281.64
  448.9000 0.0100718  22276.68
  449.0000 0.0065917  22271.71
  449.1000 0.0042290  22266.76
  449.2000 0.0026603  22261.80
  449.3000 0.0016409  22256.84
  449.4000 0.0009925  22251.89
  449.5000 0.0005886  22246.94
  449.6000 0.0002998  22241.99
  449.7000 0.0001444  22237.05
  449.8000 0.0000333  22232.10
  449.9000 0.0000000  22227.16
b3
  482.4000 0.0000000  20729.68
  482.5000 0.0000151  20725.39
  482.6000 0.0000645  20721.09
  482.7000 0.0001509  20716.80
  482.8000 0.0002644  20712.51
  482.9000 0.0004544  20708.22
  483.0000 0.0007667  20703.93
  483.1000 0.0012694  20699.65
  483.2000 0.0020620  20695.36
  483.3000 0.0032862  20691.08
  483.4000 0.0051375  20686.80
  483.5000 0.0078806  20682.52
  483.6000 0.0118595  20678.25
  483.7000 0.0175086  20673.97
  483.8000 0.0253564  20669.70
  483.9000 0.0360177  20665.43
  484.0000 0.0501933  20661.16
  484.1000 0.0686196  20656.89
  484.2000 0.0920296  20652.62
  484.3000 0.1210850  20648.36
  484.4000 0.1562890  20644.10
  484.5000 0.1979550  20639.83
  484.6000 0.2460580  20635.58
  484.7000 0.3002050  20631.32
  484.8000 0.3595860  20627.06
  484.9000 0.4229650  20622.81
  485.0000 0.4888170  20618.56
  485.1000 0.5553030  20614.31
  485.2000 0.6204700  20610.06
  485.3000 0.6824090  20605.81
  485.4000 0.7394200  20601.57
  485.5000 0.7902390  20597.32
  485.6000 0.8340430  20593.08
  485.7000 0.8705570  20588.84
  485.8000 0.9000360  20584.60
  485.9000 0.9231740  20580.37
  486.0000 0.9409870  20576.13
  486.1000 0.9546040  20571.90
  486.2000 0.9651220  20567.67
  486.3000 0.9734590  20563.44
  486.4000 0.9802710  20559.21
  486.5000 0.9859310  20554.98
  486.6000 0.9905580  20550.76
  486.7000 0.9941060  20546.54
  486.8000 0.9964790  20542.32
  486.9000 0.9976340  20538.10
  487.0000 0.9976590  20533.88
  487.1000 0.9967960  20529.67
  487.2000 0.9954270  20525.45
  487.3000 0.9939980  20521.24
  487.4000 0.9929340  20517.03
  487.5000 0.9925430  20512.82
  487.6000 0.9929500  20508.61
  487.7000 0.9940740  20504.41
  487.8000 0.9956470  20500.21
  487.9000 0.9972860  20496.00
  488.0000 0.9985930  20491.80
  488.1000 0.9992490  20487.60
  488.2000 0.9990960  20483.41
  488.3000 0.9981790  20479.21
  488.4000 0.9967310  20475.02
  488.5000 0.9951170  20470.83
  488.6000 0.9937430  20466.64
  488.7000 0.9929560  20462.45
  488.8000 0.9929570  20458.27
  488.9000 0.9937490  20454.08
  489.0000 0.9951410  20449.90
  489.1000 0.9967900  20445.72
  489.2000 0.9982910  20441.54
  489.3000 0.9992770  20437.36
  489.4000 0.9995060  20433.18
  489.5000 0.9989280  20429.01
  489.6000 0.9976910  20424.84
  489.7000 0.9961070  20420.67
  489.8000 0.9945760  20416.50
  489.9000 0.9934830  20412.33
  490.0000 0.9931030  20408.16
  490.1000 0.9935370  20404.00
  490.2000 0.9946800  20399.84
  490.3000 0.9962530  20395.68
  490.4000 0.9978680  20391.52
  490.5000 0.9991300  20387.36
  490.6000 0.9997290  20383.20
  490.7000 0.9995210  20379.05
  490.8000 0.9985630  20374.90
  490.9000 0.9970990  20370.75
  491.0000 0.9954960  20366.60
  491.1000 0.9941580  20362.45
  491.2000 0.9934220  20358.31
  491.3000 0.9934750  20354.16
  491.4000 0.9943090  20350.02
  491.5000 0.9957190  20345.88
  491.6000 0.9973610  20341.74
  491.7000 0.9988300  20337.60
  491.8000 0.9997650  20333.47
  491.9000 0.9999380  20329.34
  492.0000 0.9993110  20325.20
  492.1000 0.9980440  20321.07
  492.2000 0.9964540  20316.94
  492.3000 0.9949400  20312.82
  492.4000 0.9938760  20308.69
  492.5000 0.9935240  20304.57
  492.6000 0.9939590  20300.45
  492.7000 0.9950550  20296.33
  492.8000 0.9965000  20292.21
  492.9000 0.9978740  20288.09
  493.0000 0.9987340  20283.98
  493.1000 0.9987040  20279.86
  493.2000 0.9975430  20275.75
  493.3000 0.9951650  20271.64
  493.4000 0.9916100  20267.53
  493.5000 0.9869620  20263.42
  493.6000 0.9812560  20259.32
  493.7000 0.9743590  20255.22
  493.8000 0.9658940  20251.11
  493.9000 0.9552030  20247.01
  494.0000 0.9413620  20242.91
  494.1000 0.9232800  20238.82
  494.2000 0.8998400  20234.72
  494.3000 0.8700620  20230.63
  494.4000 0.8332840  20226.54
  494.5000 0.7892470  20222.45
  494.6000 0.7382390  20218.36
  494.7000 0.6810850  20214.27
  494.8000 0.6191000  20210.19
  494.9000 0.5539870  20206.10
  495.0000 0.4875920  20202.02
  495.1000 0.4218620  20197.94
  495.2000 0.3586120  20193.86
  495.3000 0.2994040  20189.78
  495.4000 0.2454520  20185.71
  495.5000 0.1975110  20181.63
  495.6000 0.1559780  20177.56
  495.7000 0.1208710  20173.49
  495.8000 0.0919056  20169.42
  495.9000 0.0685706  20165.36
  496.0000 0.0501884  20161.29
  496.1000 0.0360369  20157.23
  496.2000 0.0253844  20153.16
  496.3000 0.0175423  20149.10
  496.4000 0.0118951  20145.04
  496.5000 0.0079123  20140.99
  496.6000 0.0051634  20136.93
  496.7000 0.0033059  20132.88
  496.8000 0.0020768  20128.82
  496.9000 0.0012804  20124.77
  497.0000 0.0007745  20120.72
  497.1000 0.0004597  20116.68
  497.2000 0.0002371  20112.63
  497.3000 0.0000847  20108.59
  497.4000 0.0000000  20104.54
b4
  502.4000 0.0000000  19904.46
  502.5000 0.0000157  19900.50
  502.6000 0.0000805  19896.54
  502.7000 0.0001607  19892.58
  502.8000 0.0002804  19888.62
  502.9000 0.0004804  19884.67
  503.0000 0.0008076  19880.72
  503.1000 0.0013323  19876.76
  503.2000 0.0021570  19872.81
  503.3000 0.0034262  19868.87
  503.4000 0.0053393  19864.92
  503.5000 0.0081651  19860.97
  503.6000 0.0122507  19857.03
  503.7000 0.0180340  19853.09
  503.8000 0.0260443  19849.15
  503.9000 0.0368973  19845.21
  504.0000 0.0512895  19841.27
  504.1000 0.0699486  19837.33
  504.2000 0.0935976  19833.40
  504.3000 0.1228810  19829.47
  504.4000 0.1582890  19825.54
  504.5000 0.2001120  19821.61
  504.6000 0.2483070  19817.68
  504.7000 0.3024670  19813.75
  504.8000 0.3617710  19809.83
  504.9000 0.4249920  19805.90
  505.0000 0.4906090  19801.98
  505.1000 0.5567970  19798.06
  505.2000 0.6216350  19794.14
  505.3000 0.6832420  19790.22
  505.4000 0.7399570  19786.31
  505.5000 0.7905390  19782.39
  505.6000 0.8341770  19778.48
  505.7000 0.8706110  19774.57
  505.8000 0.9000860  19770.66
  505.9000 0.9232850  19766.75
  506.0000 0.9411980  19762.85
  506.1000 0.9549280  19758.94
  506.2000 0.9655460  19755.04
  506.3000 0.9739540  19751.14
  506.4000 0.9808010  19747.24
  506.5000 0.9864610  19743.34
  506.6000 0.9910600  19739.44
  506.7000 0.9945710  19735.54
  506.8000 0.9969140  19731.65
  506.9000 0.9980580  19727.76
  507.0000 0.9980970  19723.87
  507.1000 0.9972720  19719.98
  507.2000 0.9959560  19716.09
  507.3000 0.9945800  19712.20
  507.4000 0.9935560  19708.32
  507.5000 0.9931800  19704.43
  507.6000 0.9935720  19700.55
  507.7000 0.9946520  19696.67
  507.8000 0.9961610  19692.79
  507.9000 0.9977320  19688.92
  508.0000 0.9989800  19685.04
  508.1000 0.9995990  19681.17
  508.2000 0.9994380  19677.29
  508.3000 0.9985400  19673.42
  508.4000 0.9971320  19669.55
  508.5000 0.9955650  19665.68
  508.6000 0.9942310  19661.82
  508.7000 0.9934630  19657.95
  508.8000 0.9934560  19654.09
  508.9000 0.9942120  19650.23
  509.0000 0.9955460  19646.37
  509.1000 0.9971290  19642.51
  509.2000 0.9985700  19638.65
  509.3000 0.9995130  19634.79
  509.4000 0.9997270  19630.94
  509.5000 0.9991610  19627.09
  509.6000 0.9979570  19623.23
  509.7000 0.9964180  19619.38
  509.8000 0.9949270  19615.54
  509.9000 0.9938580  19611.69
  510.0000 0.9934770  19607.84
  510.1000 0.9938820  19604.00
  510.2000 0.9949740  19600.16
  510.3000 0.9964830  19596.32
  510.4000 0.9980370  19592.48
  510.5000 0.9992530  19588.64
  510.6000 0.9998300  19584.80
  510.7000 0.9996270  19580.97
  510.8000 0.9986980  19577.13
  510.9000 0.9972750  19573.30
  511.0000 0.9957130  19569.47
  511.1000 0.9944030  19565.64
  511.2000 0.9936720  19561.82
  511.3000 0.9937030  19557.99
  511.4000 0.9944910  19554.17
  511.5000 0.9958420  19550.34
  511.6000 0.9974220  19546.52
  511.7000 0.9988410  19542.70
  511.8000 0.9997480  19538.88
  511.9000 0.9999200  19535.07
  512.0000 0.9993160  19531.25
  512.1000 0.9980870  19527.44
  512.2000 0.9965390  19523.62
  512.3000 0.9950560  19519.81
  512.4000 0.9940030  19516.00
  512.5000 0.9936350  19512.20
  512.6000 0.9940300  19508.39
  512.7000 0.9950670  19504.58
  512.8000 0.9964490  19500.78
  512.9000 0.9977690  19496.98
  513.0000 0.9985920  19493.18
  513.1000 0.9985520  19489.38
  513.2000 0.9974050  19485.58
  513.3000 0.9950600  19481.78
  513.4000 0.9915430  19477.99
  513.5000 0.9869320  19474.20
  513.6000 0.9812430  19470.40
  513.7000 0.9743500  19466.61
  513.8000 0.9658780  19462.83
  513.9000 0.9551710  19459.04
  514.0000 0.9413380  19455.25
  514.1000 0.9232900  19451.47
  514.2000 0.8999490  19447.69
  514.3000 0.8703470  19443.90
  514.4000 0.8337900  19440.12
  514.5000 0.7900670  19436.35
  514.6000 0.7393900  19432.57
  514.7000 0.6826160  19428.79
  514.8000 0.6210140  19425.02
  514.9000 0.5561950  19421.25
  515.0000 0.4900790  19417.48
  515.1000 0.4245000  19413.71
  515.2000 0.3613400  19409.94
  515.3000 0.3021330  19406.17
  515.4000 0.2480500  19402.41
  515.5000 0.1999440  19398.64
  515.6000 0.1581630  19394.88
  515.7000 0.1227970  19391.12
  515.8000 0.0935597  19387.36
  515.9000 0.0699370  19383.60
  516.0000 0.0513008  19379.84
  516.1000 0.0369125  19376.09
  516.2000 0.0260614  19372.34
  516.3000 0.0180545  19368.58
  516.4000 0.0122696  19364.83
  516.5000 0.0081824  19361.08
  516.6000 0.0053524  19357.34
  516.7000 0.0034359  19353.59
  516.8000 0.0021645  19349.85
  516.9000 0.0013378  19346.10
  517.0000 0.0008115  19342.36
  517.1000 0.0004829  19338.62
  517.2000 0.0002088  19334.88
  517.3000 0.0001212  19331.14
  517.4000 0.0000000  19327.41
b5
  552.4000 0.0000000  18102.82
  552.5000 0.0000405  18099.55
  552.6000 0.0000724  18096.27
  552.7000 0.0001693  18093.00
  552.8000 0.0002947  18089.73
  552.9000 0.0005036  18086.45
  553.0000 0.0008443  18083.18
  553.1000 0.0013895  18079.91
  553.2000 0.0022435  18076.64
  553.3000 0.0035544  18073.38
  553.4000 0.0055275  18070.11
  553.5000 0.0084319  18066.85
  553.6000 0.0126245  18063.58
  553.7000 0.0185411  18060.32
  553.8000 0.0267177  18057.06
  553.9000 0.0377833  18053.80
  554.0000 0.0524127  18050.54
  554.1000 0.0713546  18047.28
  554.2000 0.0952974  18044.03
  554.3000 0.1248880  18040.77
  554.4000 0.1606390  18037.52
  554.5000 0.2027530  18034.27
